      Goethite
      Yang H, Lu R, Downs R T, Costin G
      Acta Crystallographica E62 (2006) i250-i252
      Goethite, alpha-FeO(OH), from single-crystal data
      Locality: Park County, Colorado, USA
      _database_code_amcsd 0010471

      CELL PARAMETERS:   4.5979  9.9510  3.0178   90.000   90.000   90.000
      SPACE GROUP: Pbnm      

           ATOM        X         Y         Z     OCCUPANCY  ISO(B)
            Fe     0.04892   0.85366   0.25000     1.000     0.464
            O      0.70569   0.19914   0.25000     1.000     0.565
            Oh     0.19871   0.05298   0.25000     1.000     0.583
            H      0.37813   0.08170   0.25000     1.000     1.533

            X-RAY WAVELENGTH:     1.790000
            BOUNDS ON TWO THETA:    3.0  60.0
            LIMITS IMPOSED ON THE INDICES ARE:  +/-  2 +/-  5 +/-  1
            Cell Volume:    138.076
            Density (g/cm3):      4.274
            MAX. ABS. INTENSITY / VOLUME**2:      27.42817838    
            RIR:      2.996
            RIR based on corundum from Acta Crystallographica A38 (1982) 733-739
            The INTENSITY cut off value is   0.01

               2-THETA      INTENSITY    D-SPACING   H   K   L   Multiplicity
                20.73         12.74        4.9755    0   2   0         2
                24.76        100.00        4.1739    1   1   0         4
                30.74         10.83        3.3768    1   2   0         4
                38.87         45.81        2.6901    1   3   0         4
                40.59         24.58        2.5803    0   2   1         4
                41.56          6.27        2.5229    1   0   1         4
                42.17         15.86        2.4878    0   4   0         2
                42.93         75.28        2.4455    1   1   1         8
                45.82          3.20        2.2989    2   0   0         2
                46.87         10.06        2.2502    1   2   1         8
                47.10          3.40        2.2399    2   1   0         4
                48.29         17.53        2.1880    1   4   0         4
                50.79          1.40        2.0869    2   2   0         4
                52.94          4.01        2.0081    1   3   1         8
                55.58          7.17        1.9196    0   4   1         4
                56.55          0.79        1.8895    2   3   0         4
                58.68          0.67        1.8264    1   5   0         4
                59.68         10.93        1.7986    2   1   1         8
================================================================================
       XPOW Copyright 1993 Bob Downs, Ranjini Swaminathan and Kurt Bartelmehs
  For reference, see Downs et al. (1993) American Mineralogist 78, 1104-1107.
