      Foshagite
      Gard J A, Taylor H F W
      Acta Crystallographica 13 (1960) 785-793
      The crystal structure of foshagite
      Locality: Crestmore, California, USA
      _database_code_amcsd 0009245
      CELL PARAMETERS:  10.3200  7.3600  7.0400   90.000  106.400   90.000
      SPACE GROUP: P-1       
      X-RAY WAVELENGTH:     1.790290
      Cell Volume:    512.969
      Density (g/cm3):      2.722
      MAX. ABS. INTENSITY / VOLUME**2:      11.09485202    
      RIR:      1.902
      RIR based on corundum from Acta Crystallographica A38 (1982) 733-739
               2-THETA      INTENSITY    D-SPACING   H   K   L   Multiplicity
                10.38          1.73        9.9001    1   0   0         2
                15.23         14.00        6.7536    0   0   1         2
                15.84          8.16        6.4982   -1   0   1         2
                17.43          3.17        5.9066    1   1   0         2
                20.73          2.00        4.9761    0  -1   1         2
                20.73          1.49        4.9761    0   1   1         2
                20.78          3.01        4.9646    1   0   1         2
                20.84         20.54        4.9501    2   0   0         2
                21.18          3.58        4.8712   -1  -1   1         2
                21.18          3.67        4.8712   -1   1   1         2
                25.17          3.05        4.1075   -2   1   0         2
                26.24          2.66        3.9435   -2   1   1         2
                26.24          3.02        3.9435   -2  -1   1         2
                29.26          4.19        3.5438    2   0   1         2
                29.52          6.31        3.5134   -1   0   2         2
                30.08          1.03        3.4494    1   2   0         2
                30.08          1.03        3.4494   -1   2   0         2
                30.74         22.00        3.3768    0   0   2         2
                30.87          2.11        3.3631   -3   0   1         2
                31.48          3.70        3.3000    3   0   0         2
                31.98         16.97        3.2491   -2   0   2         2
                32.80          2.97        3.1707   -1   1   2         2
                33.91          2.18        3.0692    0  -1   2         2
                34.03          1.56        3.0589   -3   1   1         2
                34.03          1.05        3.0589   -3  -1   1         2
                34.59          1.89        3.0112    3   1   0         2
                35.05          2.10        2.9723   -2  -1   2         2
                35.29         50.00        2.9533    2   2   0         2
                35.29         50.00        2.9533   -2   2   0         2
                35.31         11.38        2.9515    1   0   2         2
                36.08          1.30        2.8905   -2  -2   1         2
                36.08          1.30        2.8905   -2   2   1         2
                37.49          8.02        2.7858   -3   0   2         2
                39.00          5.26        2.6814    3   0   1         2
                41.25          2.65        2.5412   -1  -2   2         2
                41.25          2.65        2.5412   -1   2   2         2
                42.17          3.10        2.4880    0  -2   2         2
                42.17          3.10        2.4880    0   2   2         2
                42.28          2.89        2.4823    2   0   2         2
                42.41          2.83        2.4750    4   0   0         2
                42.73          2.23        2.4569    3   2   0         2
                42.73          2.23        2.4569   -3   2   0         2
                43.13          1.35        2.4356   -2  -2   2         2
                43.13          1.35        2.4356   -2   2   2         2
                44.93          2.34        2.3428   -1   0   3         2
                45.61         13.12        2.3096   -2   0   3         2
                45.76          1.34        2.3024    1   2   2         2
                45.76          1.34        2.3024    1  -2   2         2
                47.28          1.02        2.2325   -1  -1   3         2
                48.79         10.65        2.1671    3   2   1         2
                48.79         10.65        2.1671    3  -2   1         2
                48.82          1.18        2.1661   -3   0   3         2
                49.14          1.03        2.1527    0   1   3         2
                49.53          1.60        2.1371    4   0   1         2
                50.28          2.12        2.1071   -4  -2   1         2
                50.28          2.12        2.1071   -4   2   1         2
                50.87          3.10        2.0842    3   0   2         2
                51.57          2.07        2.0579    2   2   2         2
                51.57          2.07        2.0579    2  -2   2         2
                51.68          1.16        2.0537    4   2   0         2
                51.68          1.16        2.0537   -4   2   0         2
                53.76          1.91        1.9800    5   0   0         2
                54.00          2.41        1.9717   -4   2   2         2
                54.00          2.41        1.9717   -4  -2   2         2
                55.57          1.91        1.9204    0  -2   3         2
                55.57          1.91        1.9204    0   2   3         2
                58.22         17.13        1.8400    0   4   0         2
                59.44          1.58        1.8057    1  -2   3         2
                59.44          1.58        1.8057    1   2   3         2
                59.64          1.95        1.8001   -5  -2   1         2
================================================================================
       XPOW Copyright 1993 Bob Downs, Ranjini Swaminathan and Kurt Bartelmehs
  For reference, see Downs et al. (1993) American Mineralogist 78, 1104-1107.