      Rosenhahnite
      Wan C, Ghose S, Gibbs G V
      American Mineralogist 62 (1977) 503-512
      Rosenhahnite, Ca3Si3O8(OH)2: crystal structure and the stereochemical
      configuration of the hydroxylated trisilicate group, [Si3O8(OH)2]
      Note: sample is from Mendocino County, California
      _database_code_amcsd 0000580
      CELL PARAMETERS:   6.9550  9.4840  6.8120  108.640   94.840   95.890
      SPACE GROUP: P-1       
      X-RAY WAVELENGTH:     1.790290
      Cell Volume:    420.226
      Density (g/cm3):      2.896
      MAX. ABS. INTENSITY / VOLUME**2:      5.164442952    
      RIR:      0.832
      RIR based on corundum from Acta Crystallographica A38 (1982) 733-739
               2-THETA      INTENSITY    D-SPACING   H   K   L   Multiplicity
                11.54          4.72        8.9015    0   1   0         2
                14.99          1.49        6.8646    1   0   0         2
                16.07          1.07        6.4046    0   0   1         2
                17.64          7.52        5.8372   -1   1   0         2
                20.19          2.45        5.1075    1   1   0         2
                22.56          4.62        4.5756    1  -1   1         2
                22.77          1.18        4.5352    0   1   1         2
                23.21          1.86        4.4507    0   2   0         2
                25.27          1.79        4.0930   -1   1   1         2
                25.91          5.28        3.9930   -1   2   0         2
                28.61          2.78        3.6233   -1  -2   1         2
                29.33          2.88        3.5358    1   1   1         2
                30.24         26.67        3.4323    2   0   0         2
                30.60          1.86        3.3923    0  -1   2         2
                30.89         32.80        3.3611   -2   1   0         2
                32.46         94.90        3.2023    0   0   2         2
                33.11          8.07        3.1419   -1  -1   2         2
                33.14         19.30        3.1385    0  -2   2         2
                33.41         10.09        3.1143    0  -3   1         2
                33.67          1.30        3.0908   -1   2   1         2
                33.97         19.76        3.0644    2   1   0         2
                34.12          1.37        3.0510   -1   0   2         2
                34.21         63.04        3.0438   -2  -1   1         2
                34.96          2.79        2.9802    2  -1   1         2
                35.06          8.29        2.9721   -2   1   1         2
                35.12        100.00        2.9672    0   3   0         2
                35.33          2.90        2.9496    1  -1   2         2
                35.58          2.18        2.9297    1  -3   1         2
                35.72          2.91        2.9186   -2   2   0         2
                36.19         10.86        2.8818   -1  -2   2         2
                36.22          4.33        2.8799    2   0   1         2
                36.34          2.12        2.8709   -1   3   0         2
                36.91          4.40        2.8277    1  -2   2         2
                37.64         30.83        2.7751    2  -2   1         2
                37.67         14.67        2.7730    1   0   2         2
                38.16          1.98        2.7382    0   1   2         2
                38.96          1.01        2.6842   -1   1   2         2
                39.34         26.04        2.6595    0  -3   2         2
                41.04          6.10        2.5538    2   2   0         2
                41.09          5.77        2.5507   -2   2   1         2
                41.71          1.15        2.5146   -2  -1   2         2
                41.93          3.00        2.5017   -2   0   2         2
                42.61          1.39        2.4635   -1  -3   2         2
                43.37          6.71        2.4225    1   1   2         2
                43.52          4.54        2.4146   -2   3   0         2
                43.63          4.60        2.4088    2  -3   1         2
                43.97          3.93        2.3911   -1   3   1         2
                44.62          3.06        2.3581    0  -4   1         2
                45.50         12.33        2.3146   -2   1   2         2
                45.95         26.80        2.2934   -3   1   0         2
                46.06          1.17        2.2882    3   0   0         2
                46.07          1.09        2.2878    2  -2   2         2
                46.84         11.55        2.2520    0  -1   3         2
                47.65          3.48        2.2160   -2  -3   1         2
                47.82          2.02        2.2085    2   0   2         2
                47.93         15.42        2.2037   -1  -1   3         2
                48.00          2.79        2.2006    0  -4   2         2
                48.33         10.20        2.1865   -3   1   1         2
                48.71          3.65        2.1705    2   2   1         2
                48.82          5.45        2.1659    1   3   1         2
                48.85         16.42        2.1649   -1  -4   1         2
                49.78          2.58        2.1269    1  -4   2         2
                49.88          3.77        2.1227    2  -3   2         2
                50.30          1.13        2.1062    2   3   0         2
                50.66          3.29        2.0923    0  -3   3         2
                50.95          1.36        2.0812    1  -1   3         2
                51.16          3.01        2.0733    3  -2   1         2
                51.36          2.12        2.0656   -1  -4   2         2
                51.88          3.81        2.0465   -2   2   2         2
                53.16          3.44        2.0005    2   1   2         2
                53.28          3.21        1.9965   -2   4   0         2
                53.99          5.08        1.9721   -2  -1   3         2
                54.78          2.03        1.9457   -3   3   0         2
                55.26          4.99        1.9301    3   2   0         2
                55.44          2.63        1.9243    3   1   1         2
                55.51          2.22        1.9223    3  -3   1         2
                56.21          1.25        1.9002   -3   1   2         2
                56.63         26.78        1.8871    0   3   2         2
                57.57          6.62        1.8591   -2  -4   1         2
                58.29          1.40        1.8381    2   3   1         2
                58.54          5.25        1.8308    3  -1   2         2
                58.66          2.08        1.8273    3  -2   2         2
                58.83         15.72        1.8226    2  -2   3         2
                59.16          2.10        1.8133   -1  -4   3         2
                59.22          3.85        1.8116   -2  -4   2         2
                59.40          7.14        1.8068   -2  -3   3         2
                59.47          1.55        1.8048    2  -1   3         2
                59.83          3.20        1.7948   -2   4   1         2
================================================================================
       XPOW Copyright 1993 Bob Downs, Ranjini Swaminathan and Kurt Bartelmehs
  For reference, see Downs et al. (1993) American Mineralogist 78, 1104-1107.